Frequency [Hz],Amplitude,X [mm],Y [mm]
0.0,2.2321,-1.2768,-2.0843
0.0386,-1.583,-4.7935,-4.4933
0.0773,-1.8828,-4.8056,-5.4051
0.1159,-2.0641,-5.4626,-4.7911
0.1546,-2.1772,-5.0344,-5.0309
0.1932,-2.2909,-4.8924,-5.1822
0.2319,-2.368,-4.9457,-4.7464
0.2705,-2.421,-5.3747,-5.2545
0.3092,-2.471,-5.0391,-5.0247
0.3478,-2.5267,-5.0573,-5.223
0.3865,-2.6061,-4.4562,-4.6534
0.4251,-2.6286,-4.769,-4.7874
0.4638,-2.6541,-4.9146,-4.8552
0.5024,-2.7152,-4.8623,-4.7087
0.541,-2.7119,-5.0897,-5.169
0.5797,-2.7178,-5.0483,-4.8813
0.6183,-2.7797,-4.8679,-4.4717
0.657,-2.7898,-4.6837,-4.5801
0.6956,-2.8467,-4.9388,-4.5044
0.7343,-2.8642,-4.916,-4.8336
0.7729,-2.8616,-4.9338,-5.0932
0.8116,-2.8825,-4.4962,-5.3388
0.8502,-2.9681,-5.1198,-4.7924
0.8889,-2.9411,-4.5111,-4.9802
0.9275,-2.8938,-4.894,-4.6508
0.9662,-2.9534,-4.234,-4.4992
1.0048,-3.0016,-5.0123,-4.6082
1.0435,-3.0037,-4.672,-5.1138
1.0821,-3.0428,-4.6005,-4.5474
1.1207,-3.0588,-4.5523,-5.3803
1.1594,-3.0567,-4.3661,-4.9034
1.198,-3.081,-4.997,-5.4608
1.2367,-3.0793,-4.5561,-5.1152
1.2753,-3.0598,-4.3008,-5.1774
1.314,-3.0589,-4.7646,-4.6375
1.3526,-3.0971,-4.5779,-5.2427
1.3913,-3.1277,-4.608,-4.6966
1.4299,-3.1371,-4.4519,-4.7068
1.4686,-3.1531,-4.0697,-4.5429
1.5072,-3.1958,-4.4464,-4.3724
1.5459,-3.1701,-4.2977,-4.9971
1.5845,-3.1906,-4.4345,-4.9085
1.6231,-3.2758,-4.4023,-4.5144
1.6618,-3.2198,-4.4217,-4.5801
1.7004,-3.145,-4.3137,-4.5777
1.7391,-3.2622,-4.6701,-4.5025
1.7777,-3.2814,-4.2879,-4.4552
1.8164,-3.242,-4.6776,-4.4414
1.855,-3.2628,-4.3367,-4.417
1.8937,-3.2585,-4.2229,-5.2406
1.9323,-3.3201,-4.0126,-4.5578
1.971,-3.3736,-4.3543,-5.2284
2.0096,-3.3469,-4.0888,-4.5181
2.0483,-3.234,-4.0894,-5.2805
2.0869,-3.2931,-4.8935,-4.6495
2.1256,-3.3301,-4.1756,-4.7985
2.1642,-3.2924,-4.2086,-4.5776
2.2028,-3.4149,-4.3554,-4.724
2.2415,-3.3859,-4.1976,-4.4662
2.2801,-3.2684,-4.8215,-4.7329
2.3188,-3.413,-4.2666,-5.3251
2.3574,-3.4303,-4.1185,-4.4844
2.3961,-3.363,-4.2686,-4.8791
2.4347,-3.3658,-4.1827,-4.8103
2.4734,-3.4087,-4.2202,-4.5489
2.512,-3.3409,-4.4214,-5.0964
2.5507,-3.3353,-4.0769,-4.4211
2.5893,-3.4024,-3.804,-4.799
2.628,-3.4996,-3.9944,-4.6504
2.6666,-3.3831,-4.438,-5.4514
2.7052,-3.3866,-4.1265,-4.4356
2.7439,-3.5317,-4.1813,-4.5123
2.7825,-3.3674,-4.4623,-4.5545
2.8212,-3.4893,-3.9846,-4.5525
2.8598,-3.4287,-4.3239,-4.6506
2.8985,-3.4592,-3.9625,-5.1096
2.9371,-3.5654,-3.8289,-4.4901
2.9758,-3.4934,-4.3206,-4.9034
3.0144,-3.5099,-3.9651,-4.4461
3.0531,-3.4954,-3.8492,-5.0911
3.0917,-3.5236,-4.2615,-4.6663
3.1304,-3.5544,-4.0324,-5.0216
3.169,-3.7154,-4.2711,-4.4773
3.2077,-3.425,-4.6499,-4.3005
3.2463,-3.5127,-5.101,-4.5958
3.2849,-3.5754,-4.3369,-4.4876
3.3236,-3.4952,-4.5757,-4.3186
3.3622,-3.461,-4.6976,-4.4741
3.4009,-3.5679,-4.2556,-4.7928
3.4395,-3.5815,-5.2803,-4.8419
3.4782,-3.4412,-4.208,-4.4514
3.5168,-3.4389,-4.5029,-4.5597
3.5555,-3.5596,-4.1165,-4.6054
3.5941,-3.5411,-4.0619,-4.6031
3.6328,-3.4421,-3.9991,-4.3871
3.6714,-3.5411,-5.2139,-4.4552
3.7101,-3.6814,-4.4635,-4.4447
3.7487,-3.4475,-3.8084,-4.5449
3.7873,-3.5083,-4.3073,-5.0198
3.826,-3.5298,-3.7767,-4.5743
3.8646,-3.4794,-4.1752,-4.7735
3.9033,-3.5709,-4.0753,-4.4714
3.9419,-3.6613,-4.3832,-4.5787
3.9806,-3.5905,-4.2312,-4.3834
4.0192,-3.5115,-3.8997,-4.6226
4.0579,-3.6163,-4.2629,-4.4112
4.0965,-3.7053,-3.9789,-4.4738
4.1352,-3.6711,-4.1111,-4.7403
4.1738,-3.5293,-4.3265,-4.6799
4.2125,-3.5884,-4.4096,-4.7585
4.2511,-3.7257,-4.3569,-4.6226
4.2898,-3.5821,-4.0207,-4.5719
4.3284,-3.6262,-4.2011,-4.1043
4.367,-3.674,-3.8499,-4.4576
4.4057,-3.6998,-3.9737,-4.1642
4.4443,-3.6821,-3.9351,-4.3163
4.483,-3.6237,-3.9122,-4.58
4.5216,-3.7251,-3.9026,-4.6262
4.5603,-3.6601,-4.1835,-4.7993
4.5989,-3.7312,-4.1352,-4.4424
4.6376,-3.5908,-4.0156,-4.8406
4.6762,-3.65,-4.1278,-4.3881
4.7149,-3.6906,-4.1518,-4.3758
4.7535,-3.549,-3.8631,-4.7145
4.7922,-3.6739,-4.1597,-4.529
4.8308,-3.6518,-4.226,-5.1819
4.8694,-3.6268,-4.4014,-4.7068
4.9081,-3.8489,-3.8214,-4.5326
4.9467,-3.6515,-3.9383,-4.6046
4.9854,-3.7251,-4.1334,-4.6176
5.024,-3.7326,-4.2689,-4.4656
5.0627,-3.8388,-3.9411,-4.5764
5.1013,-3.7936,-4.0935,-4.5358
5.14,-3.7191,-4.4769,-4.3238
5.1786,-3.9007,-4.0378,-4.7978
5.2173,-3.6157,-4.3712,-4.5259
5.2559,-3.6646,-4.1367,-4.7533
5.2946,-3.7444,-3.6291,-4.6445
5.3332,-3.7544,-4.2076,-4.4965
5.3719,-3.7813,-4.4609,-4.364
5.4105,-3.6465,-3.8139,-4.4781
5.4491,-3.6274,-4.0769,-5.034
5.4878,-3.6297,-3.8026,-4.5862
5.5264,-3.6613,-4.5993,-4.6895
5.5651,-3.8366,-3.9033,-4.8222
5.6037,-3.6562,-4.0398,-4.2251
5.6424,-3.8457,-4.0304,-4.9062
5.681,-3.7312,-4.296,-4.1815
5.7197,-3.969,-3.6246,-4.5543
5.7583,-3.7589,-4.0984,-4.4056
5.797,-3.597,-4.8424,-4.6276
5.8356,-3.7177,-4.1158,-4.3805
5.8743,-3.7894,-3.9337,-4.6319
5.9129,-3.878,-3.8543,-4.4298
5.9515,-3.7639,-3.7833,-5.0563
5.9902,-3.6812,-4.133,-4.4334
6.0288,-3.7299,-4.1277,-4.6472
6.0675,-3.757,-4.2189,-4.2439
6.1061,-4.2743,-3.5484,-4.2709
6.1448,-3.7644,-4.0906,-4.5032
6.1834,-4.1557,-3.7129,-4.2911
6.2221,-3.9049,-4.2762,-4.4061
6.2607,-3.9913,-4.1367,-4.3027
6.2994,-3.6968,-3.9829,-4.6481
6.338,-3.7978,-4.0325,-4.866
6.3767,-3.7776,-4.1822,-4.9416
6.4153,-3.9467,-4.1199,-4.712
6.454,-3.8786,-4.2126,-4.4093
6.4926,-4.0548,-3.7302,-4.5603
6.5312,-4.1101,-4.3938,-4.3744
6.5699,-3.6787,-3.9242,-4.4175
6.6085,-3.9856,-4.2007,-4.3092
6.6472,-3.6975,-3.9348,-4.4107
6.6858,-3.6065,-4.0022,-4.5882
6.7245,-3.8676,-3.9619,-4.1831
6.7631,-3.7854,-3.9642,-4.6328
6.8018,-3.7808,-3.9278,-4.6604
6.8404,-3.8098,-4.2087,-4.487
6.8791,-3.9938,-4.374,-4.5962
6.9177,-3.7573,-4.1264,-4.5024
6.9564,-3.6519,-3.9398,-5.2631
6.995,-3.9469,-4.4596,-4.3938
7.0336,-3.7399,-4.5992,-4.3942
7.0723,-4.0831,-4.2214,-4.6608
7.1109,-3.7191,-3.6499,-5.2837
7.1496,-3.706,-3.9999,-4.5798
7.1882,-3.8204,-3.8453,-5.061
7.2269,-3.7632,-4.1889,-4.4567
7.2655,-3.6385,-4.4357,-4.3412
7.3042,-3.7531,-4.0275,-4.6886
7.3428,-3.806,-4.3006,-4.7634
7.3815,-3.5658,-3.7799,-4.1631
7.4201,-3.6181,-3.7351,-4.4492
7.4588,-3.7548,-3.9413,-4.1274
7.4974,-3.7029,-3.9003,-4.6284
7.5361,-3.6914,-4.0025,-4.4039
7.5747,-3.8683,-4.303,-4.8262
7.6133,-3.7296,-3.9625,-5.1868
7.652,-3.8135,-4.4039,-5.0016
7.6906,-3.8373,-4.0222,-4.9631
7.7293,-4.0278,-3.8594,-4.8503
7.7679,-3.9988,-3.9683,-4.5802
7.8066,-3.915,-4.397,-4.7165
7.8452,-3.7918,-4.6555,-4.6373
7.8839,-4.4047,-3.605,-4.7338
7.9225,-3.7966,-3.9511,-4.3136
7.9612,-3.9732,-4.2787,-4.5754
7.9998,-4.0154,-4.2334,-4.4499
8.0385,-3.6307,-3.7368,-4.5339
8.0771,-3.8031,-4.3374,-4.1828
8.1157,-3.9292,-5.0697,-4.619
8.1544,-3.6179,-3.6547,-4.7151
8.193,-3.6052,-3.6174,-4.5259
8.2317,-3.9852,-3.9251,-4.4549
8.2703,-4.0438,-3.6945,-4.2991
8.309,-3.9379,-4.3155,-4.5199
8.3476,-3.8637,-3.8456,-4.8246
8.3863,-4.0033,-4.0271,-4.719
8.4249,-4.1274,-4.2869,-4.8345
8.4636,-4.1694,-3.9042,-4.5952
8.5022,-4.0512,-3.7114,-4.6432
8.5409,-4.0268,-3.9892,-4.6533
8.5795,-3.8665,-3.8812,-4.6929
8.6182,-4.3064,-3.6978,-4.8313
8.6568,-3.9717,-4.1124,-4.9297
8.6954,-3.8064,-3.897,-4.8434
8.7341,-3.966,-4.2211,-4.5206
8.7727,-4.0263,-3.8305,-4.4453
8.8114,-4.3391,-3.9645,-4.7079
8.85,-4.034,-4.1432,-4.6184
8.8887,-4.0193,-3.9743,-4.6734
8.9273,-4.2119,-3.9527,-4.5013
8.966,-3.8798,-3.8329,-4.6185
9.0046,-3.8934,-3.9535,-4.3969
9.0433,-3.9734,-4.215,-4.5753
9.0819,-3.891,-4.5949,-4.6169
9.1206,-3.7441,-3.9202,-5.1977
9.1592,-3.9888,-4.2927,-4.8163
9.1978,-3.9758,-3.9517,-6.2181
9.2365,-3.9136,-4.3968,-4.5288
9.2751,-4.0778,-3.8767,-4.2657
9.3138,-3.9567,-4.1815,-4.4683
9.3524,-3.8629,-3.8279,-4.3861
9.3911,-3.8707,-4.0381,-4.5922
9.4297,-3.7142,-4.656,-4.4213
9.4684,-4.2881,-4.0095,-4.5881
9.507,-4.0072,-4.243,-4.9538
9.5457,-3.964,-4.508,-4.6672
9.5843,-3.8278,-3.7947,-4.8328
9.623,-4.1175,-4.1412,-4.5149
9.6616,-3.9284,-3.8548,-4.3317
9.7002,-4.0172,-4.0323,-4.2838
9.7389,-3.7907,-3.7902,-4.2526
9.7775,-3.987,-4.0257,-4.1388
9.8162,-4.0482,-3.9828,-4.3544
9.8548,-4.059,-4.3035,-4.176
9.8935,-3.9373,-3.8669,-4.1749
9.9321,-4.0665,-4.0437,-3.9885
9.9708,-3.7479,-3.5793,-3.638
10.0094,-3.9322,-4.0043,-3.2864
10.0481,-4.343,-4.1508,-3.9261
10.0867,-3.8496,-3.9193,-4.1943
10.1254,-4.1307,-3.8611,-4.5061
10.164,-3.9308,-3.879,-4.4714
10.2027,-3.8812,-4.0204,-4.5564
10.2413,-4.1955,-4.0768,-4.4385
10.2799,-4.049,-4.7643,-4.1948
10.3186,-3.8259,-3.8102,-4.4639
10.3572,-3.7618,-3.6644,-4.2918
10.3959,-3.9564,-4.8475,-4.2087
10.4345,-4.2813,-3.8157,-4.8896
10.4732,-3.9663,-4.3929,-4.7951
10.5118,-3.9465,-4.1552,-4.3184
10.5505,-4.0058,-3.953,-4.3101
10.5891,-3.8705,-3.8577,-5.2314
10.6278,-3.9017,-3.8978,-4.659
10.6664,-3.8826,-3.9562,-4.3764
10.7051,-4.1752,-4.8219,-5.1584
10.7437,-4.0813,-4.4137,-5.0156
10.7823,-4.1299,-3.8223,-4.3812
10.821,-3.9772,-4.2655,-4.8651
10.8596,-3.887,-3.6566,-4.312
10.8983,-3.9894,-4.2652,-4.8148
10.9369,-4.1698,-4.3565,-4.8435
10.9756,-3.9173,-4.1519,-4.8951
11.0142,-3.844,-3.9303,-4.4059
11.0529,-3.8022,-3.764,-4.5227
11.0915,-4.2921,-3.9746,-4.4817
11.1302,-4.0794,-4.4619,-5.1484
11.1688,-4.1636,-4.0754,-4.3755
11.2075,-3.8773,-3.9814,-4.4764
11.2461,-4.5981,-4.0728,-4.9426
11.2848,-4.0291,-4.0626,-4.7254
11.3234,-4.0964,-3.9849,-4.8783
11.362,-4.0647,-4.3128,-5.0194
11.4007,-3.9955,-3.9534,-4.5796
11.4393,-4.2734,-4.2158,-4.6026
11.478,-4.4192,-3.8073,-4.3575
11.5166,-3.9931,-4.3934,-5.1331
11.5553,-4.0964,-3.9303,-4.3972
11.5939,-4.019,-4.1264,-4.8851
11.6326,-4.2053,-4.0322,-4.681
11.6712,-4.0617,-4.3927,-4.7542
11.7099,-4.0698,-4.3292,-5.0806
11.7485,-4.1822,-4.159,-5.2172
11.7872,-4.1811,-4.0742,-4.895
11.8258,-3.8037,-3.7925,-4.4412
11.8644,-4.0615,-4.1814,-4.7731
11.9031,-4.3605,-3.7834,-4.6835
11.9417,-4.2188,-4.0184,-5.3496
11.9804,-3.8969,-3.9184,-4.4822
12.019,-4.0761,-4.017,-4.7161
12.0577,-4.1917,-4.1079,-4.7855
12.0963,-4.5821,-4.1571,-5.0025
12.135,-4.4678,-3.9868,-4.5434
12.1736,-4.1109,-4.1722,-4.6588
12.2123,-3.895,-4.2353,-5.3925
12.2509,-4.1439,-4.4857,-4.2739
12.2896,-4.009,-4.4567,-4.9618
12.3282,-4.132,-3.9301,-5.4152
12.3669,-3.9043,-3.8496,-4.3674
12.4055,-4.2603,-4.0111,-4.6531
12.4441,-3.9239,-3.921,-4.9062
12.4828,-3.972,-4.0136,-4.8572
12.5214,-3.8728,-3.84,-4.9869
12.5601,-4.3071,-3.8684,-4.5709
12.5987,-3.8752,-4.3614,-4.7064
12.6374,-4.1727,-3.971,-4.6206
12.676,-3.8526,-4.277,-5.4221
12.7147,-4.5984,-4.0748,-4.6127
12.7533,-3.9779,-4.2845,-4.8579
12.792,-4.6372,-3.9461,-4.9564
12.8306,-4.176,-3.9082,-4.6384
12.8693,-3.9284,-3.9325,-4.8959
12.9079,-4.1191,-4.2643,-4.7993
12.9465,-4.6685,-3.9035,-4.5561
12.9852,-4.285,-4.1849,-4.2939
13.0238,-4.2329,-3.9929,-4.5201
13.0625,-3.9534,-3.8596,-4.6232
13.1011,-4.1007,-4.3211,-4.3471
13.1398,-4.0356,-4.2415,-4.438
13.1784,-4.1533,-4.2687,-4.5238
13.2171,-4.0506,-4.0682,-4.9386
13.2557,-4.0138,-4.0818,-5.2176
13.2944,-4.1737,-4.3869,-4.7182
13.333,-4.1378,-4.1348,-4.561
13.3717,-3.9398,-4.7329,-4.2696
13.4103,-3.7953,-3.8236,-4.7517
13.449,-4.4308,-4.2726,-4.482
13.4876,-3.9518,-4.2241,-4.7794
13.5262,-4.1323,-3.824,-4.7743
13.5649,-3.7521,-3.7169,-5.0446
13.6035,-4.1976,-4.2345,-4.9468
13.6422,-4.4338,-3.997,-4.1826
13.6808,-4.1658,-4.5504,-4.8319
13.7195,-4.4015,-4.2041,-4.5511
13.7581,-4.901,-3.9916,-4.8523
13.7968,-4.3928,-4.172,-4.7306
13.8354,-4.1274,-4.9245,-4.6194
13.8741,-4.0359,-4.3317,-4.8531
13.9127,-4.1779,-4.0783,-4.5808
13.9514,-3.9251,-4.0799,-4.4887
13.99,-4.1307,-4.1522,-4.3215
14.0286,-4.1445,-3.7103,-4.7159
14.0673,-4.1245,-3.9994,-4.3704
14.1059,-3.9161,-4.1392,-4.6158
14.1446,-4.0509,-4.1297,-4.9552
14.1832,-4.1206,-3.8179,-4.7281
14.2219,-4.1042,-4.1729,-4.4782
14.2605,-4.0031,-4.0361,-4.4502
14.2992,-3.9459,-3.9155,-4.6131
14.3378,-3.9704,-4.1331,-4.273
14.3765,-4.0005,-4.4817,-4.5494
14.4151,-4.1686,-3.9209,-4.1853
14.4538,-4.1006,-4.558,-4.5785
14.4924,-3.9146,-3.9331,-4.9093
14.5311,-4.0473,-4.09,-4.6462
14.5697,-3.9733,-3.8461,-4.9839
14.6083,-4.049,-4.2149,-4.2494
14.647,-3.987,-3.9761,-4.6882
14.6856,-4.1033,-4.1482,-4.6745
14.7243,-4.077,-4.4223,-4.9787
14.7629,-3.9546,-4.0143,-4.6457
14.8016,-4.0447,-4.2903,-4.4323
14.8402,-4.3052,-3.9927,-4.4876
14.8789,-4.0758,-4.6821,-4.5771
14.9175,-4.1238,-3.775,-4.2276
14.9562,-4.3466,-4.0685,-4.6384
14.9948,-4.2159,-3.8229,-4.6437
15.0335,-4.0861,-4.1717,-4.8204
15.0721,-4.1486,-4.2115,-4.5234
15.1107,-4.4817,-3.9069,-4.4373
15.1494,-4.0286,-3.9389,-4.3806
15.188,-4.162,-4.053,-4.3506
15.2267,-4.2826,-4.4353,-4.4345
15.2653,-4.2058,-3.947,-4.4491
15.304,-4.1018,-4.5621,-4.3686
15.3426,-4.0446,-3.9533,-4.2942
15.3813,-4.1798,-4.284,-4.4253
15.4199,-4.1784,-3.8853,-4.7232
15.4586,-4.1974,-4.0923,-4.6253
15.4972,-4.4343,-3.8369,-4.523
15.5359,-4.3076,-4.469,-4.7337
15.5745,-4.2187,-4.1979,-4.6814
15.6132,-4.3327,-4.1405,-4.4729
15.6518,-4.4079,-3.7216,-4.7651
15.6904,-4.114,-4.1008,-4.8037
15.7291,-4.1907,-4.3367,-4.5348
15.7677,-3.9133,-3.9764,-4.5722
15.8064,-3.9671,-4.0359,-5.0782
15.845,-4.5927,-3.9682,-4.9886
15.8837,-4.5676,-4.1381,-4.4588
15.9223,-4.5945,-3.8384,-4.7672
15.961,-4.045,-3.9152,-4.7751
15.9996,-3.8584,-3.9171,-4.4471
16.0383,-4.1456,-4.3144,-4.3896
16.0769,-4.1475,-4.6856,-4.2259
16.1156,-3.8428,-3.7592,-4.9384
16.1542,-4.1542,-4.6123,-4.8155
16.1928,-3.9491,-4.1767,-4.8035
16.2315,-4.4665,-3.9927,-4.5029
16.2701,-4.3364,-4.0311,-4.7216
16.3088,-4.5674,-3.9226,-4.8874
16.3474,-4.6231,-4.0867,-4.8121
16.3861,-3.896,-3.9153,-4.5558
16.4247,-3.8982,-3.9517,-4.6217
16.4634,-4.3645,-3.709,-4.568
16.502,-4.4382,-4.3784,-4.7696
16.5407,-4.4965,-4.0298,-4.5468
16.5793,-4.3933,-3.7921,-4.6174
16.618,-4.2924,-4.6313,-4.9912
16.6566,-4.0443,-4.1969,-4.5865
16.6953,-4.0748,-4.0254,-4.9685
16.7339,-4.1845,-4.9801,-4.6699
16.7725,-4.0937,-4.1549,-4.5316
16.8112,-3.926,-3.8315,-4.4486
16.8498,-4.8091,-4.0256,-4.5709
16.8885,-4.3826,-4.3005,-4.4046
16.9271,-3.9607,-3.9516,-5.7804
16.9658,-3.9899,-4.1245,-4.7683
17.0044,-4.1867,-3.7747,-4.3404
17.0431,-3.7776,-3.7761,-4.5495
17.0817,-4.8135,-4.0414,-5.096
17.1204,-3.9322,-3.8128,-4.4658
17.159,-4.1026,-3.7268,-5.241
17.1977,-3.9175,-3.8011,-4.581
17.2363,-4.1768,-3.9563,-4.3898
17.2749,-4.321,-4.4686,-4.517
17.3136,-4.0618,-3.991,-4.3148
17.3522,-3.8355,-3.7105,-4.3744
17.3909,-4.4016,-4.5335,-4.9012
17.4295,-4.0539,-3.9199,-4.5055
17.4682,-4.1913,-4.085,-4.5371
17.5068,-4.2997,-3.7393,-4.4938
17.5455,-4.2422,-4.6732,-4.7619
17.5841,-4.3017,-4.3166,-4.5571
17.6228,-5.0628,-3.6876,-4.4329
17.6614,-4.1293,-3.8684,-4.5446
17.7001,-3.952,-3.738,-4.487
17.7387,-4.0655,-4.4807,-4.6886
17.7774,-3.9466,-3.8509,-4.6805
17.816,-4.178,-3.7574,-4.4874
17.8546,-4.0101,-3.9317,-4.5194
17.8933,-4.1078,-4.1619,-5.0203
17.9319,-4.6147,-3.8834,-5.4838
17.9706,-4.4252,-3.8529,-5.0886
18.0092,-4.6519,-3.7715,-4.8689
18.0479,-3.8975,-3.5724,-4.5276
18.0865,-3.865,-3.7987,-4.4784
18.1252,-4.2283,-4.1744,-4.393
18.1638,-4.353,-4.2732,-4.4069
18.2025,-3.9666,-3.8541,-4.3641
18.2411,-4.0779,-4.1989,-4.3333
18.2798,-4.0393,-3.8979,-4.3285
18.3184,-4.8506,-3.7563,-4.6885
18.357,-4.5997,-4.0496,-4.7655
18.3957,-3.9839,-4.1167,-4.6286
18.4343,-4.0101,-3.9091,-4.7401
18.473,-4.1473,-4.3313,-4.9526
18.5116,-3.9651,-3.8595,-5.0014
18.5503,-5.165,-3.8857,-4.6775
18.5889,-4.3473,-3.9822,-4.5229
18.6276,-4.226,-4.0365,-4.8649
18.6662,-4.0419,-4.2085,-4.8389
18.7049,-4.483,-3.796,-4.5638
18.7435,-4.0988,-3.8276,-4.727
18.7822,-3.8186,-3.6435,-5.0883
18.8208,-3.9664,-3.7324,-4.5237
18.8595,-4.1691,-3.7718,-4.6648
18.8981,-4.1949,-3.8723,-4.6131
18.9367,-4.4602,-4.1337,-4.5535
18.9754,-4.0484,-3.7146,-4.657
19.014,-4.3168,-3.5958,-4.8796
19.0527,-4.0618,-4.0042,-4.4644
19.0913,-4.0252,-3.7284,-4.4985
19.13,-4.1025,-3.6754,-4.4066
19.1686,-4.0274,-3.8462,-5.0624
19.2073,-4.2759,-3.7712,-4.4364
19.2459,-4.3189,-4.5193,-4.4876
19.2846,-4.1781,-4.274,-4.9496
19.3232,-3.8046,-3.6004,-4.5664
19.3619,-3.843,-3.5559,-4.4252
19.4005,-3.79,-3.6468,-4.4827
19.4391,-4.4603,-4.0398,-4.4622
19.4778,-3.9507,-3.8547,-4.7519
19.5164,-4.4827,-3.8854,-4.8307
19.5551,-4.1358,-4.0765,-4.6143
19.5937,-4.269,-3.818,-4.4196
19.6324,-4.3881,-3.6632,-4.3568
19.671,-4.1578,-3.8536,-4.4667
19.7097,-3.8869,-3.6895,-4.3723
19.7483,-4.0871,-4.0307,-4.8874
19.787,-4.2081,-4.3368,-4.6011
19.8256,-4.3166,-4.622,-4.8393
19.8643,-4.3436,-4.7145,-4.2484
19.9029,-4.0769,-3.684,-4.1624
19.9415,-4.3767,-4.068,-3.9348
19.9802,-3.5094,-3.1207,-3.4314
20.0188,-4.0865,-4.1514,-3.6901
20.0575,-3.8219,-3.5392,-3.9352
20.0961,-3.7428,-3.461,-4.174
20.1348,-4.1642,-3.7841,-4.329
20.1734,-3.9636,-4.0812,-4.3526
20.2121,-4.1833,-4.2519,-4.8158
20.2507,-3.7458,-3.5177,-4.9076
20.2894,-3.9762,-3.9495,-4.8939
20.328,-4.0936,-3.7778,-4.6093
20.3667,-3.9269,-3.6998,-4.5999
20.4053,-4.0258,-3.974,-4.5761
20.444,-4.3231,-3.7093,-4.9598
20.4826,-4.5725,-3.7616,-4.4831
20.5212,-3.9462,-3.9172,-4.4387
20.5599,-4.1121,-4.1764,-4.4863
20.5985,-3.9294,-3.7183,-4.561
20.6372,-4.0653,-3.7949,-4.7188
20.6758,-4.0077,-3.7283,-4.7019
20.7145,-3.8012,-3.5385,-4.7765
20.7531,-4.5325,-3.6437,-4.5406
20.7918,-4.0192,-3.9055,-5.0753
20.8304,-4.1013,-3.9183,-4.6855
20.8691,-4.1375,-4.1383,-4.515
20.9077,-4.1105,-3.9171,-5.2516
20.9464,-3.7277,-3.4959,-4.3358
20.985,-3.9128,-3.5848,-4.7883
21.0236,-4.0234,-4.0309,-4.6413
21.0623,-4.3034,-4.0887,-4.8225
21.1009,-4.7586,-3.8708,-4.9092
21.1396,-3.6593,-3.4307,-4.7248
21.1782,-4.6675,-4.1045,-4.8483
21.2169,-3.9891,-3.7354,-4.473
21.2555,-4.178,-3.9019,-4.6432
21.2942,-4.5475,-4.0508,-4.5079
21.3328,-3.7704,-3.5271,-4.7773
21.3715,-3.955,-3.6719,-4.3122
21.4101,-4.4415,-3.7561,-4.6613
21.4488,-4.4543,-3.9615,-4.4051
21.4874,-3.8377,-3.4656,-4.7666
21.5261,-3.9,-3.7354,-4.3472
21.5647,-3.9722,-3.8415,-4.5428
21.6033,-4.1365,-3.8483,-4.5509
21.642,-4.106,-3.5643,-4.9565
21.6806,-4.617,-3.9145,-5.0685
21.7193,-4.152,-4.1968,-4.3067
21.7579,-3.7512,-3.3631,-4.5132
21.7966,-3.9534,-3.3887,-5.3601
21.8352,-4.3746,-4.1003,-4.5471
21.8739,-3.8811,-3.6783,-4.475
21.9125,-4.0312,-4.1149,-4.8607
21.9512,-4.4579,-3.7269,-4.9483
21.9898,-3.79,-3.4679,-4.5194
22.0285,-3.9462,-3.6806,-4.7915
22.0671,-3.7744,-3.4113,-4.4487
22.1057,-3.8563,-3.7384,-4.3522
22.1444,-4.244,-3.6716,-4.499
22.183,-4.5703,-3.7018,-4.4707
22.2217,-4.5166,-3.7062,-4.6285
22.2603,-4.3384,-4.0061,-4.3559
22.299,-4.0526,-3.5933,-4.6848
22.3376,-4.2021,-3.6628,-4.2294
22.3763,-4.0671,-3.5612,-4.4947
22.4149,-4.3517,-4.1177,-4.7342
22.4536,-4.0434,-3.4708,-4.5552
22.4922,-4.3182,-3.6501,-4.5761
22.5309,-3.7294,-3.4369,-4.6565
22.5695,-4.6084,-3.9658,-4.5399
22.6082,-4.7838,-4.1732,-4.5601
22.6468,-3.9116,-3.7256,-4.4983
22.6854,-4.1711,-4.1032,-4.4465
22.7241,-3.9658,-3.7641,-4.4219
22.7627,-3.797,-3.5575,-5.1299
22.8014,-4.0106,-3.8232,-4.3947
22.84,-3.8868,-3.5961,-4.4017
22.8787,-4.3801,-4.2868,-4.3703
22.9173,-4.112,-4.1613,-4.2977
22.956,-3.875,-3.6324,-4.7526
22.9946,-4.0561,-3.5763,-4.2986
23.0333,-3.9111,-3.4818,-5.3795
23.0719,-3.7884,-3.5801,-4.6402
23.1106,-3.8805,-3.7151,-4.7201
23.1492,-4.3034,-4.0892,-4.967
23.1878,-4.1297,-4.2169,-4.4025
23.2265,-3.8781,-3.5866,-4.1777
23.2651,-4.6362,-3.8294,-4.5644
23.3038,-4.1984,-3.5411,-4.4153
23.3424,-4.2738,-3.8093,-4.505
23.3811,-4.1764,-4.1884,-4.5814
23.4197,-4.2915,-3.8396,-4.6201
23.4584,-4.3198,-4.6324,-4.6237
23.497,-3.7666,-3.5825,-4.891
23.5357,-4.0532,-3.8827,-4.692
23.5743,-4.1055,-4.2161,-4.4292
23.613,-4.5133,-4.7463,-4.5478
23.6516,-4.5362,-3.8818,-4.4606
23.6903,-4.3865,-3.8616,-4.6347
23.7289,-4.6883,-3.9109,-4.5346
23.7675,-4.2506,-3.9573,-4.9308
23.8062,-3.7907,-3.4874,-4.8239
23.8448,-4.2513,-3.6589,-4.8888
23.8835,-3.9287,-3.5447,-4.3792
23.9221,-3.8835,-3.547,-4.3918
